Temperature (C)	Pressure (bar)	Quality (l+v)	Internal Energy (l+v, kJ/mol)	Enthalpy (l+v, kJ/mol)	Entropy (l+v, J/mol*K)	Density (l, g/ml)	Volume (l, ml/g)	Internal Energy (l, kJ/mol)	Enthalpy (l, kJ/mol)	Entropy (l, J/mol*K)	Cv (l, J/mol*K)	Cp (l, J/mol*K)	Sound Spd. (l, m/s)	Joule-Thomson (l, K/bar)	Viscosity (l, uPa*s)	Therm. Cond. (l, W/m*K)	Density (v, g/ml)	Volume (v, ml/g)	Internal Energy (v, kJ/mol)	Enthalpy (v, kJ/mol)	Entropy (v, J/mol*K)	Cv (v, J/mol*K)	Cp (v, J/mol*K)	Sound Spd. (v, m/s)	Joule-Thomson (v, K/bar)	Viscosity (v, uPa*s)	Therm. Cond. (v, W/m*K)
0.0000	34.851	0.038234	8.9714	9.1905	45.432	0.92743	1.0782	8.6366	8.8020	44.010	41.586	111.89	536.44	0.043249	100.40	0.10915	0.097647	10.241	17.393	18.964	81.211	38.385	82.068	212.04	1.4227	14.561	0.020401
1.0000	35.783	0.038852	9.0745	9.2994	45.809	0.92138	1.0853	8.7390	8.9099	44.388	41.672	113.30	527.11	0.045931	98.663	0.10796	0.10080	9.9202	17.375	18.937	80.964	38.687	84.198	211.46	1.4076	14.666	0.020768
2.0000	36.733	0.039449	9.1780	9.4089	46.186	0.91523	1.0926	8.8421	9.0188	44.768	41.764	114.80	517.73	0.048758	96.939	0.10677	0.10407	9.6085	17.356	18.909	80.712	38.996	86.474	210.87	1.3925	14.774	0.021154
3.0000	37.701	0.040023	9.2820	9.5190	46.563	0.90895	1.1002	8.9462	9.1288	45.150	41.860	116.42	508.29	0.051742	95.230	0.10558	0.10746	9.3056	17.335	18.879	80.458	39.313	88.913	210.26	1.3773	14.886	0.021561
4.0000	38.688	0.040567	9.3864	9.6296	46.940	0.90256	1.1080	9.0512	9.2399	45.534	41.960	118.15	498.81	0.054897	93.533	0.10438	0.11098	9.0110	17.313	18.847	80.199	39.640	91.534	209.62	1.3622	15.001	0.021991
5.0000	39.695	0.041078	9.4912	9.7408	47.318	0.89603	1.1160	9.1572	9.3521	45.921	42.065	120.01	489.28	0.058236	91.847	0.10319	0.11462	8.7244	17.289	18.814	79.936	39.976	94.358	208.97	1.3469	15.121	0.022445
6.0000	40.720	0.041548	9.5966	9.8526	47.696	0.88936	1.1244	9.2642	9.4657	46.310	42.174	122.01	479.71	0.061777	90.171	0.10199	0.11841	8.4454	17.264	18.778	79.669	40.324	97.410	208.30	1.3316	15.246	0.022927
7.0000	41.765	0.041970	9.7024	9.9650	48.075	0.88255	1.1331	9.3723	9.5806	46.703	42.287	124.19	470.10	0.065537	88.504	0.10079	0.12234	8.1737	17.237	18.740	79.396	40.683	100.72	207.61	1.3162	15.375	0.023438
8.0000	42.831	0.042335	9.8088	10.078	48.454	0.87558	1.1421	9.4816	9.6969	47.098	42.404	126.54	460.44	0.069538	86.844	0.099591	0.12644	7.9089	17.209	18.699	79.118	41.055	104.32	206.90	1.3006	15.510	0.023983
9.0000	43.916	0.042633	9.9156	10.192	48.833	0.86844	1.1515	9.5922	9.8148	47.497	42.525	129.11	450.73	0.073802	85.190	0.098388	0.13071	7.6508	17.178	18.657	78.834	41.441	108.25	206.17	1.2848	15.651	0.024565
10.000	45.022	0.042852	10.023	10.306	49.213	0.86112	1.1613	9.7042	9.9343	47.900	42.651	131.92	440.97	0.078356	83.541	0.097183	0.13516	7.3988	17.145	18.611	78.544	41.842	112.57	205.41	1.2689	15.799	0.025187
11.000	46.149	0.042978	10.131	10.421	49.594	0.85360	1.1715	9.8177	10.056	48.307	42.783	135.02	431.15	0.083230	81.894	0.095977	0.13980	7.1528	17.110	18.563	78.246	42.260	117.32	204.62	1.2527	15.953	0.025855
12.000	47.297	0.042993	10.240	10.537	49.976	0.84587	1.1822	9.9328	10.179	48.719	42.921	138.43	421.27	0.088459	80.247	0.094770	0.14467	6.9125	17.072	18.511	77.941	42.696	122.59	203.81	1.2362	16.116	0.026575
13.000	48.466	0.042876	10.349	10.654	50.358	0.83791	1.1934	10.050	10.304	49.137	43.067	142.22	411.31	0.094081	78.599	0.093563	0.14976	6.6774	17.032	18.457	77.627	43.153	128.46	202.98	1.2195	16.287	0.027352
14.000	49.658	0.042601	10.459	10.771	50.742	0.82970	1.2053	10.168	10.432	49.560	43.222	146.46	401.26	0.10014	76.947	0.092356	0.15511	6.4472	16.989	18.398	77.303	43.633	135.04	202.11	1.2023	16.468	0.028195
15.000	50.871	0.042137	10.570	10.889	51.126	0.82121	1.2177	10.289	10.562	49.990	43.388	151.22	391.10	0.10670	75.288	0.091151	0.16073	6.2216	16.943	18.336	76.969	44.139	142.46	201.21	1.1847	16.660	0.029113
16.000	52.108	0.041444	10.681	11.009	51.513	0.81241	1.2309	10.412	10.695	50.427	43.568	156.60	380.82	0.11382	73.619	0.089950	0.16666	6.0003	16.893	18.270	76.624	44.674	150.91	200.27	1.1667	16.864	0.030117
17.000	53.368	0.040473	10.793	11.129	51.900	0.80327	1.2449	10.538	10.831	50.872	43.765	162.74	370.37	0.12157	71.938	0.088755	0.17293	5.7828	16.840	18.198	76.265	45.242	160.60	199.30	1.1480	17.082	0.031222
18.000	54.651	0.039160	10.907	11.250	52.290	0.79376	1.2598	10.667	10.970	51.328	43.983	169.79	359.72	0.13006	70.240	0.087572	0.17957	5.5688	16.782	18.122	75.891	45.848	171.84	198.28	1.1287	17.316	0.032443
19.000	55.958	0.037423	11.021	11.372	52.681	0.78381	1.2758	10.799	11.113	51.794	44.229	177.99	348.84	0.13940	68.520	0.086405	0.18664	5.3578	16.720	18.039	75.501	46.499	185.02	197.22	1.1086	17.568	0.033802
20.000	57.291	0.035152	11.136	11.496	53.074	0.77339	1.2930	10.935	11.261	52.272	44.512	187.64	337.65	0.14973	66.773	0.085265	0.19420	5.1493	16.652	17.950	75.091	47.202	200.68	196.09	1.0877	17.842	0.035327
21.000	58.648	0.032202	11.252	11.621	53.470	0.76240	1.3116	11.075	11.413	52.764	44.843	199.19	326.09	0.16126	64.993	0.084164	0.20232	4.9427	16.578	17.853	74.658	47.967	219.59	194.91	1.0656	18.140	0.037053
22.000	60.031	0.028367	11.369	11.747	53.868	0.75077	1.3320	11.219	11.571	53.274	45.239	213.29	314.08	0.17423	63.170	0.083124	0.21108	4.7375	16.496	17.748	74.200	48.808	242.87	193.64	1.0423	18.469	0.039029
23.000	61.440	0.023354	11.488	11.874	54.269	0.73836	1.3543	11.370	11.736	53.804	45.724	230.96	301.51	0.18897	61.294	0.082177	0.22062	4.5326	16.406	17.631	73.710	49.744	272.19	192.27	1.0176	18.835	0.041319
24.000	62.877	0.016723	11.608	12.003	54.674	0.72502	1.3793	11.528	11.910	54.359	46.330	253.82	288.28	0.20591	59.349	0.081375	0.23110	4.3272	16.305	17.503	73.182	50.799	310.21	190.78	0.99099	19.247	0.044022
25.000	64.342	0.0077855	11.730	12.134	55.083	0.71050	1.4075	11.695	12.093	54.945	47.108	284.63	274.26	0.22565	57.314	0.080798	0.24273	4.1198	16.192	17.359	72.606	52.013	361.42	189.12	0.96220	19.716	0.047280
26.000	66.419	undefined	11.828	12.245	55.412	0.70000	1.4286	11.828	12.245	55.412	47.453	302.75	267.17	0.23786	55.903	0.080306	0.70000	1.4286	11.828	12.245	55.412	47.453	302.75	267.17	0.23786	55.903	0.080306
27.000	69.699	undefined	11.875	12.313	55.569	0.70000	1.4286	11.875	12.313	55.569	46.756	279.74	274.31	0.23015	55.938	0.079564	0.70000	1.4286	11.875	12.313	55.569	46.756	279.74	274.31	0.23015	55.938	0.079564
28.000	73.010	undefined	11.921	12.380	55.724	0.70000	1.4286	11.921	12.380	55.724	46.260	261.38	280.33	0.22340	55.974	0.078976	0.70000	1.4286	11.921	12.380	55.724	46.260	261.38	280.33	0.22340	55.974	0.078976
29.000	76.349	undefined	11.968	12.448	55.876	0.70000	1.4286	11.968	12.448	55.876	45.864	246.22	285.76	0.21728	56.010	0.078493	0.70000	1.4286	11.968	12.448	55.876	45.864	246.22	285.76	0.21728	56.010	0.078493
30.000	79.712	undefined	12.013	12.514	56.027	0.70000	1.4286	12.013	12.514	56.027	45.513	233.40	290.88	0.21164	56.046	0.078088	0.70000	1.4286	12.013	12.514	56.027	45.513	233.40	290.88	0.21164	56.046	0.078088
31.000	83.097	undefined	12.059	12.581	56.177	0.70000	1.4286	12.059	12.581	56.177	45.180	222.40	295.82	0.20638	56.083	0.077744	0.70000	1.4286	12.059	12.581	56.177	45.180	222.40	295.82	0.20638	56.083	0.077744
32.000	86.504	undefined	12.104	12.647	56.324	0.70000	1.4286	12.104	12.647	56.324	44.854	212.83	300.62	0.20147	56.119	0.077449	0.70000	1.4286	12.104	12.647	56.324	44.854	212.83	300.62	0.20147	56.119	0.077449
33.000	89.930	undefined	12.148	12.714	56.471	0.70000	1.4286	12.148	12.714	56.471	44.535	204.40	305.28	0.19687	56.156	0.077193	0.70000	1.4286	12.148	12.714	56.471	44.535	204.40	305.28	0.19687	56.156	0.077193
34.000	93.375	undefined	12.193	12.780	56.615	0.70000	1.4286	12.193	12.780	56.615	44.225	196.91	309.80	0.19256	56.193	0.076970	0.70000	1.4286	12.193	12.780	56.615	44.225	196.91	309.80	0.19256	56.193	0.076970
35.000	96.838	undefined	12.237	12.846	56.759	0.70000	1.4286	12.237	12.846	56.759	43.927	190.18	314.16	0.18851	56.229	0.076776	0.70000	1.4286	12.237	12.846	56.759	43.927	190.18	314.16	0.18851	56.229	0.076776
36.000	100.32	undefined	12.281	12.911	56.900	0.70000	1.4286	12.281	12.911	56.900	43.646	184.09	318.35	0.18468	56.267	0.076606	0.70000	1.4286	12.281	12.911	56.900	43.646	184.09	318.35	0.18468	56.267	0.076606
37.000	103.81	undefined	12.324	12.977	57.041	0.70000	1.4286	12.324	12.977	57.041	43.383	178.54	322.37	0.18106	56.304	0.076457	0.70000	1.4286	12.324	12.977	57.041	43.383	178.54	322.37	0.18106	56.304	0.076457
38.000	107.32	undefined	12.367	13.042	57.180	0.70000	1.4286	12.367	13.042	57.180	43.141	173.46	326.21	0.17761	56.341	0.076326	0.70000	1.4286	12.367	13.042	57.180	43.141	173.46	326.21	0.17761	56.341	0.076326
39.000	110.84	undefined	12.410	13.107	57.318	0.70000	1.4286	12.410	13.107	57.318	42.920	168.77	329.88	0.17432	56.379	0.076211	0.70000	1.4286	12.410	13.107	57.318	42.920	168.77	329.88	0.17432	56.379	0.076211
40.000	114.37	undefined	12.453	13.172	57.455	0.70000	1.4286	12.453	13.172	57.455	42.720	164.44	333.39	0.17116	56.417	0.076109	0.70000	1.4286	12.453	13.172	57.455	42.720	164.44	333.39	0.17116	56.417	0.076109
41.000	117.90	undefined	12.496	13.237	57.591	0.70000	1.4286	12.496	13.237	57.591	42.541	160.42	336.75	0.16812	56.455	0.076020	0.70000	1.4286	12.496	13.237	57.591	42.541	160.42	336.75	0.16812	56.455	0.076020
42.000	121.45	undefined	12.538	13.302	57.726	0.70000	1.4286	12.538	13.302	57.726	42.380	156.68	339.98	0.16519	56.493	0.075942	0.70000	1.4286	12.538	13.302	57.726	42.380	156.68	339.98	0.16519	56.493	0.075942
43.000	125.01	undefined	12.581	13.366	57.860	0.70000	1.4286	12.581	13.366	57.860	42.236	153.18	343.09	0.16235	56.531	0.075874	0.70000	1.4286	12.581	13.366	57.860	42.236	153.18	343.09	0.16235	56.531	0.075874
44.000	128.58	undefined	12.623	13.431	57.993	0.70000	1.4286	12.623	13.431	57.993	42.107	149.92	346.10	0.15959	56.569	0.075815	0.70000	1.4286	12.623	13.431	57.993	42.107	149.92	346.10	0.15959	56.569	0.075815
45.000	132.15	undefined	12.665	13.496	58.126	0.70000	1.4286	12.665	13.496	58.126	41.990	146.86	349.02	0.15692	56.608	0.075764	0.70000	1.4286	12.665	13.496	58.126	41.990	146.86	349.02	0.15692	56.608	0.075764
46.000	135.73	undefined	12.707	13.560	58.257	0.70000	1.4286	12.707	13.560	58.257	41.885	143.99	351.87	0.15432	56.646	0.075719	0.70000	1.4286	12.707	13.560	58.257	41.885	143.99	351.87	0.15432	56.646	0.075719
47.000	139.31	undefined	12.749	13.624	58.388	0.70000	1.4286	12.749	13.624	58.388	41.788	141.29	354.65	0.15179	56.685	0.075682	0.70000	1.4286	12.749	13.624	58.388	41.788	141.29	354.65	0.15179	56.685	0.075682
48.000	142.90	undefined	12.790	13.689	58.518	0.70000	1.4286	12.790	13.689	58.518	41.699	138.75	357.38	0.14932	56.724	0.075651	0.70000	1.4286	12.790	13.689	58.518	41.699	138.75	357.38	0.14932	56.724	0.075651
49.000	146.50	undefined	12.832	13.753	58.648	0.70000	1.4286	12.832	13.753	58.648	41.615	136.36	360.06	0.14692	56.763	0.075624	0.70000	1.4286	12.832	13.753	58.648	41.615	136.36	360.06	0.14692	56.763	0.075624
50.000	150.10	undefined	12.873	13.817	58.777	0.70000	1.4286	12.873	13.817	58.777	41.536	134.09	362.71	0.14459	56.802	0.075603	0.70000	1.4286	12.873	13.817	58.777	41.536	134.09	362.71	0.14459	56.802	0.075603
51.000	153.71	undefined	12.915	13.881	58.905	0.70000	1.4286	12.915	13.881	58.905	41.460	131.95	365.32	0.14231	56.841	0.075587	0.70000	1.4286	12.915	13.881	58.905	41.460	131.95	365.32	0.14231	56.841	0.075587
52.000	157.32	undefined	12.956	13.946	59.033	0.70000	1.4286	12.956	13.946	59.033	41.387	129.92	367.91	0.14009	56.881	0.075574	0.70000	1.4286	12.956	13.946	59.033	41.387	129.92	367.91	0.14009	56.881	0.075574
53.000	160.94	undefined	12.998	14.010	59.160	0.70000	1.4286	12.998	14.010	59.160	41.315	128.00	370.46	0.13793	56.920	0.075566	0.70000	1.4286	12.998	14.010	59.160	41.315	128.00	370.46	0.13793	56.920	0.075566
54.000	164.56	undefined	13.039	14.074	59.286	0.70000	1.4286	13.039	14.074	59.286	41.245	126.16	373.00	0.13582	56.960	0.075561	0.70000	1.4286	13.039	14.074	59.286	41.245	126.16	373.00	0.13582	56.960	0.075561
55.000	168.19	undefined	13.080	14.138	59.412	0.70000	1.4286	13.080	14.138	59.412	41.176	124.42	375.51	0.13376	57.000	0.075559	0.70000	1.4286	13.080	14.138	59.412	41.176	124.42	375.51	0.13376	57.000	0.075559
56.000	171.82	undefined	13.121	14.202	59.537	0.70000	1.4286	13.121	14.202	59.537	41.108	122.76	377.99	0.13175	57.040	0.075561	0.70000	1.4286	13.121	14.202	59.537	41.108	122.76	377.99	0.13175	57.040	0.075561
57.000	175.46	undefined	13.162	14.266	59.661	0.70000	1.4286	13.162	14.266	59.661	41.041	121.17	380.45	0.12980	57.080	0.075565	0.70000	1.4286	13.162	14.266	59.661	41.041	121.17	380.45	0.12980	57.080	0.075565
58.000	179.10	undefined	13.203	14.330	59.786	0.70000	1.4286	13.203	14.330	59.786	40.975	119.64	382.89	0.12788	57.120	0.075572	0.70000	1.4286	13.203	14.330	59.786	40.975	119.64	382.89	0.12788	57.120	0.075572
59.000	182.75	undefined	13.244	14.393	59.909	0.70000	1.4286	13.244	14.393	59.909	40.910	118.19	385.30	0.12602	57.160	0.075581	0.70000	1.4286	13.244	14.393	59.909	40.910	118.19	385.30	0.12602	57.160	0.075581
60.000	186.40	undefined	13.285	14.457	60.032	0.70000	1.4286	13.285	14.457	60.032	40.846	116.79	387.69	0.12420	57.201	0.075593	0.70000	1.4286	13.285	14.457	60.032	40.846	116.79	387.69	0.12420	57.201	0.075593
61.000	190.05	undefined	13.326	14.521	60.154	0.70000	1.4286	13.326	14.521	60.154	40.783	115.45	390.05	0.12241	57.241	0.075607	0.70000	1.4286	13.326	14.521	60.154	40.783	115.45	390.05	0.12241	57.241	0.075607
62.000	193.71	undefined	13.367	14.585	60.276	0.70000	1.4286	13.367	14.585	60.276	40.722	114.16	392.38	0.12067	57.282	0.075623	0.70000	1.4286	13.367	14.585	60.276	40.722	114.16	392.38	0.12067	57.282	0.075623
63.000	197.37	undefined	13.408	14.648	60.397	0.70000	1.4286	13.408	14.648	60.397	40.662	112.92	394.68	0.11896	57.323	0.075640	0.70000	1.4286	13.408	14.648	60.397	40.662	112.92	394.68	0.11896	57.323	0.075640
64.000	201.04	undefined	13.448	14.712	60.518	0.70000	1.4286	13.448	14.712	60.518	40.604	111.72	396.96	0.11729	57.364	0.075660	0.70000	1.4286	13.448	14.712	60.518	40.604	111.72	396.96	0.11729	57.364	0.075660
65.000	204.71	undefined	13.489	14.776	60.638	0.70000	1.4286	13.489	14.776	60.638	40.549	110.57	399.21	0.11566	57.405	0.075681	0.70000	1.4286	13.489	14.776	60.638	40.549	110.57	399.21	0.11566	57.405	0.075681
66.000	208.38	undefined	13.529	14.839	60.758	0.70000	1.4286	13.529	14.839	60.758	40.495	109.46	401.43	0.11405	57.446	0.075705	0.70000	1.4286	13.529	14.839	60.758	40.495	109.46	401.43	0.11405	57.446	0.075705
67.000	212.06	undefined	13.570	14.903	60.877	0.70000	1.4286	13.570	14.903	60.877	40.444	108.38	403.62	0.11248	57.487	0.075729	0.70000	1.4286	13.570	14.903	60.877	40.444	108.38	403.62	0.11248	57.487	0.075729
68.000	215.74	undefined	13.610	14.967	60.996	0.70000	1.4286	13.610	14.967	60.996	40.394	107.35	405.78	0.11094	57.528	0.075755	0.70000	1.4286	13.610	14.967	60.996	40.394	107.35	405.78	0.11094	57.528	0.075755
69.000	219.42	undefined	13.651	15.030	61.114	0.70000	1.4286	13.651	15.030	61.114	40.347	106.34	407.91	0.10942	57.570	0.075783	0.70000	1.4286	13.651	15.030	61.114	40.347	106.34	407.91	0.10942	57.570	0.075783
70.000	223.10	undefined	13.691	15.094	61.231	0.70000	1.4286	13.691	15.094	61.231	40.303	105.37	410.02	0.10794	57.611	0.075812	0.70000	1.4286	13.691	15.094	61.231	40.303	105.37	410.02	0.10794	57.611	0.075812
